Time (s),Channel 1 (V),Channel 2 (V)
0.0031,0.0098,4.9804
0.0041,0.0098,4.9804
0.0051,4.9804,0.0049
0.0086,4.9853,0.0049
0.0086,4.9707,0.0098
0.0106,0.0098,4.9804
0.0116,0.0098,4.9804
0.0116,4.9853,0.0049
0.0126,4.9804,0.0049
0.0126,4.9756,0.0049
0.0136,4.9707,0.0098
0.0136,0.0098,4.9804
0.0136,4.9853,0.0049
0.0146,4.9853,0.0049
0.0216,4.9804,0.0098
0.0216,4.9804,0.0049
0.0216,0.0098,4.9804
0.0228,0.0098,0.0049
0.0228,4.9853,0.0049
0.0228,4.9853,0.0049
0.0239,4.9853,0.0049
0.0239,0.0098,4.9804
0.0249,0.0098,0.0049
0.0249,4.9853,0.0049
0.0249,4.9804,0.0049
0.0259,4.9804,0.0098
0.0259,0.0098,4.9804
0.0259,0.0098,4.9804
0.0259,4.9853,0.0049
0.0272,4.9804,0.0049
0.0272,4.9804,0.0098
0.0282,0.0098,4.9804
0.0282,0.0098,4.9804
0.0292,4.9804,0.0049
0.0292,4.9853,0.0049
0.0292,4.9756,0.0098
0.0292,0.0098,4.9804
0.0292,0.0098,4.9804
0.0304,4.9804,0.0049
0.0304,4.9804,0.0049
0.0304,4.9658,0.0098
0.0314,0.0098,4.9756
0.0314,0.0098,4.9804
0.0324,4.9804,0.0049
0.0324,4.9853,0.0049
0.0334,0.0293,0.0098
0.0334,0.0098,4.9804
0.0344,0.0098,4.9804
0.0354,4.9804,0.0049
0.0364,4.9853,0.0049
0.0364,0.0293,0.0098
0.0364,0.0098,4.9804
0.0364,0.0098,4.9804
0.0376,4.9853,0.0049
0.0386,4.9853,0.0049
0.0386,0.0196,0.0147
0.0386,4.9609,0.0147
0.0396,0.0098,4.9804
0.0396,4.9804,0.0049
0.0396,4.9853,0.0049
0.0409,0.0196,0.0098
0.0409,4.9707,0.0098
0.0409,0.0098,4.9804
0.042,0.0098,0.0049
0.042,4.9853,0.0049
0.042,0.0244,0.0098
0.043,0.0293,0.0147
0.043,0.0098,4.9804
0.043,0.0098,0.0196
0.043,4.9853,0.0049
0.044,0.0244,0.0049
0.044,0.0196,0.0147
0.044,0.0098,4.9804
0.044,0.0098,4.9707
0.045,4.9804,0.0049
0.045,4.9658,0.0049
0.045,0.0196,0.0098
0.045,0.0098,4.9804
0.046,0.0098,4.9804
0.047,4.9853,0.0049
0.047,4.9756,0.0049
0.047,0.0196,0.0147
0.047,0.0098,4.9804
0.0485,0.0098,4.9804
0.0485,4.9853,0.0049
0.0495,4.9804,0.0049
0.0495,0.0244,0.0098
0.0505,0.0098,4.9804
0.0505,0.0098,4.9804
0.0505,4.9804,0.0049
0.0515,4.9853,0.0049
0.0515,0.0,0.0098
0.0515,0.0098,4.9804
0.0525,0.0098,4.9804
0.0525,4.9804,0.0049
0.0535,4.9853,0.0049
0.0545,4.9658,0.0098
0.0545,4.9756,0.0098
0.0555,0.0098,4.9804
0.0555,4.9804,0.0049
0.0555,4.9804,0.0049
0.0555,4.9658,0.0049
0.0567,4.9804,0.0049
0.0577,0.0098,4.9804
0.0587,0.0098,0.0049
0.0587,4.9804,0.0049
0.0597,4.9756,0.0049
0.0597,4.9756,0.0098
0.0597,0.0098,4.9804
0.0597,0.0098,3.9932
0.0608,4.9853,0.0049
0.0608,4.9804,0.0049
0.0608,4.9707,0.0098
0.0608,0.0098,4.9756
0.0608,0.0098,4.9804
0.0619,4.9853,0.0049
0.0619,4.9804,0.0049
0.0629,0.0342,0.0098
0.0629,0.0098,4.9804
0.0629,0.0098,4.9804
0.0639,4.9804,0.0049
0.0639,4.9804,0.0049
0.0659,0.0244,0.0098
0.0659,0.0098,4.9804
0.0699,0.0098,4.9804
0.0709,4.9804,0.0049
0.0709,4.9804,0.0049
0.0719,0.044,0.0049
0.0719,0.0098,4.9804
0.0719,0.0098,4.9804
0.0729,4.9804,0.0049
0.0729,4.9804,0.0098
0.0729,0.0147,0.0098
0.0729,0.0098,4.9804
0.0739,0.0098,4.9804
0.0759,4.9804,0.0049
0.0759,4.9804,0.0049
0.0769,0.0098,0.0147
0.0769,0.0098,4.9707
0.0769,0.0098,4.9804
0.0769,4.9804,0.0049
0.078,4.9853,0.0049
0.078,0.0098,0.0147
0.078,0.0147,0.0147
0.078,0.0098,4.9756
0.079,4.9804,0.0049
0.079,4.9804,0.0049
0.079,0.0098,0.0196
0.079,0.0098,0.0196
0.079,0.0098,4.9756
0.0801,0.0098,4.9658
0.0801,4.9853,0.0049
0.0821,0.0098,0.0147
0.0831,0.0098,0.0196
0.0851,0.0098,4.9804
0.0851,0.0098,4.9804
0.0851,4.9804,0.0049
0.0861,0.0147,0.0098
0.0861,0.0098,0.0196
0.0861,0.0098,4.9804
0.0882,0.0098,4.9804
0.0892,4.9853,0.0049
0.0892,0.0147,0.0098
0.0892,0.0098,0.0196
0.0902,0.0098,4.9804
0.0902,0.0098,4.9804
0.0902,4.9804,0.0049
0.0923,0.0244,0.0098
0.0933,0.0098,0.0196
0.0933,0.0098,4.9804
0.0933,0.0098,4.9804
0.0943,4.9804,0.0049
0.0943,4.9658,0.0049
0.0943,0.0098,0.0196
0.0943,0.0098,4.9804
0.0958,0.0098,4.9756
0.0958,4.9853,0.0049
0.0958,4.9756,0.0049
0.0958,0.0098,0.0196
0.0968,0.0098,4.9804
0.0968,0.0098,4.9804
0.0968,4.9804,0.0049
0.0968,4.9756,0.0049
0.0968,0.0098,0.0147
0.0978,0.0147,0.0196
0.0998,0.0098,4.9804
0.1008,4.9853,0.0049
0.1008,4.9804,0.0049
0.1008,0.0098,0.0147
0.1018,0.0098,0.0196
0.1038,0.0098,4.9804
0.1038,0.0098,0.0098
0.1048,4.9804,0.0049
0.1048,0.0147,0.0147
0.1048,0.0098,0.0244
0.1048,0.0098,4.9804
0.1048,0.0098,4.9804
0.1063,4.9804,0.0049
0.1063,0.0098,0.0098
0.1063,0.0098,0.0244
0.1063,0.0098,4.9804
0.1073,0.0098,4.9804
0.1073,4.9804,0.0049
0.1083,0.0147,0.0098
0.1088,0.0098,0.0244
0.1088,0.0098,4.9804
0.1088,0.0098,4.9804
0.11,4.9853,0.0049
0.11,0.0147,0.0098
0.11,0.0098,0.0244
0.11,0.0098,4.9804
0.1113,0.0098,4.9804
0.1113,4.9804,0.0049
0.1113,4.6725,0.0098
0.1113,0.0098,0.0244
0.1113,0.0147,4.9804
0.1123,0.0098,4.9804
0.1123,4.9804,0.0049
0.1123,4.9707,0.0049
0.1123,0.0098,0.0196
0.1123,0.0098,4.9804
0.1148,0.0098,4.9804
0.1148,4.9804,0.0049
0.1148,4.9756,0.0049
0.1163,0.0098,0.0196
0.1173,0.0147,0.0244
0.1183,0.0098,4.9804
0.1183,4.9853,0.0049
0.1183,4.9804,0.0049
0.1194,0.0098,0.0196
0.1204,0.0147,0.0147
0.1204,0.0098,4.9804
0.1204,0.0147,0.0049
0.1217,4.9853,0.0049
0.1217,0.0098,0.0147
0.1217,0.0147,0.0147
0.1217,0.0098,4.9804
0.1227,0.0098,4.9804
0.1247,4.9853,0.0049
0.1247,0.0147,0.0098
0.1258,0.0098,0.0147
0.1258,0.0098,4.9756
0.1258,0.0098,4.9804
0.1258,4.9804,0.0049
0.1268,0.0293,0.0098
0.1268,0.0098,0.0147
0.1268,0.0098,4.9804
0.1268,0.0098,4.9804
0.1268,4.9853,0.0049
0.1278,4.9707,0.0049
0.1278,0.0147,0.0147
0.1278,0.0098,4.9804
0.1278,0.0098,4.9804
0.1288,4.9804,0.0049
0.1288,4.9756,0.0049
0.1288,0.0147,0.0098
0.1288,0.0098,4.9804
0.1299,0.0098,4.9804
0.1299,4.9853,0.0049
0.1309,4.9804,0.0049
0.1309,0.0147,0.0098
0.1319,0.0098,4.9804
0.1349,0.0098,4.9804
0.1349,4.9804,0.0049
0.1349,4.9853,0.0049
0.1361,0.0147,0.0098
0.1361,4.956,0.0147
0.1361,0.0098,4.9804
0.1361,4.9804,0.0049
0.1373,4.9853,0.0049
0.1373,0.0196,0.0098
0.1373,4.9658,0.0098
0.1373,0.0098,4.9804
0.1385,0.0098,0.0049
0.1397,4.9804,0.0049
0.1407,0.0244,0.0098
0.1407,0.0293,0.0098
0.1407,0.0098,4.9804
0.142,0.0098,3.8954
0.142,4.9804,0.0049
0.142,0.0293,0.0098
0.142,0.0196,0.0098
0.1431,0.0098,4.9804
0.1431,0.0098,4.9804
0.1431,4.9853,0.0049
0.1431,4.9707,0.0098
0.1431,0.0196,0.0098
0.1442,0.0098,4.9756
0.1442,0.0098,4.9804
0.1442,4.9804,0.0049
0.1442,4.9804,0.0098
0.1442,0.0196,0.0098
0.1454,0.0098,4.9804
0.1454,0.0098,4.9804
0.1454,4.9853,0.0049
0.1454,4.9804,0.0049
0.1464,0.0244,0.0098
0.1464,0.0,4.9804
0.1474,0.0098,4.9804
0.1485,4.9804,0.0049
0.1514,4.9853,0.0049
0.1514,0.0293,0.0098
0.1528,0.0098,4.9804
0.1528,0.0098,4.9804
0.1528,4.9804,0.0049
0.1528,4.9853,0.0049
0.1539,4.9609,0.0098
0.1539,0.0196,0.0196
0.1549,0.0098,4.9804
0.1559,4.9853,0.0049
0.1559,4.9804,0.0049
0.1569,4.9707,0.0098
0.1569,4.9804,0.0049
0.1569,0.0049,4.9804
0.1569,4.9804,0.0049
0.1569,4.9804,0.0049
0.1579,4.9609,0.0049
0.1599,4.9756,0.0098
0.1599,0.0098,4.9804
0.1609,0.0098,0.0049
0.1609,4.9853,0.0098
0.1609,4.9658,0.0098
0.1609,4.9756,0.0098
0.1619,0.0098,4.9804
0.1619,0.0098,4.9804
0.1619,4.9804,0.0049
0.1619,4.9707,0.0049
0.1629,0.0244,0.0098
0.1629,0.0098,4.9804
0.1629,0.0098,4.9804
0.1629,4.9853,0.0049
0.1639,4.9756,0.0049
0.1709,0.0244,0.0098
0.1719,0.0098,4.9804
0.1769,0.0098,4.9804
0.1769,4.9804,0.0049
0.1779,4.9804,0.0049
0.1789,0.0196,0.0098
0.1799,0.0098,4.9804
0.1889,0.0098,4.9804
0.1929,4.9804,0.0049
0.1939,4.9804,0.0049
0.1949,0.0244,0.0098
0.1959,0.0098,4.9756
0.1959,0.0098,4.9804
0.1969,4.9804,0.0049
0.2049,4.9853,0.0049
0.2059,0.0196,0.0098
0.2085,0.0098,4.9902
0.2085,0.0098,4.9804
0.2095,4.9804,0.0049
0.2095,4.9853,0.0049
0.2095,0.0196,0.0049
0.2105,3.4946,0.0147
0.2105,0.0098,4.9756
0.2105,4.9853,0.0049
0.2105,4.9804,0.0049
0.2115,0.0293,0.0098
0.2115,4.9756,0.0098
0.2115,0.0098,4.9804
0.2125,0.0049,0.0196
0.2125,4.9853,0.0049
0.2135,4.956,0.0098
0.2135,0.0293,0.0098
0.2145,0.0098,4.9804
0.2175,0.0098,4.9804
0.2205,4.9853,0.0049
0.2205,4.9707,0.0
0.2205,0.0244,0.0098
0.2215,0.0098,4.9804
0.2215,0.0098,4.9804
0.2215,4.9853,0.0098
0.2215,4.9756,0.0049
0.2225,0.0196,0.0147
0.2225,0.0098,4.9804
0.2225,0.0098,4.9804
0.2235,4.9853,0.0049
0.2235,4.9804,0.0049
0.2595,0.0293,0.0098
0.2615,0.0098,4.9804
0.2625,0.0098,4.9804
0.2625,4.9853,0.0049
0.2638,4.9804,0.0049
0.2638,0.0244,0.0098
0.2638,0.0098,4.9804
0.2648,0.0098,4.9756
0.2648,4.9804,0.0049
0.2648,4.9853,0.0049
0.2648,4.9609,0.0098
0.2658,0.0098,4.9707
0.2658,0.0049,4.9804
0.2658,4.9853,0.0049
0.2668,4.9804,0.0049
0.2668,4.9707,0.0049
0.2668,4.9804,0.0049
0.2678,0.0098,4.9804
0.2678,4.9804,0.0049
0.2678,4.9853,0.0049
0.2768,4.9756,0.0049
0.2778,4.9804,0.0049
0.2788,0.0098,4.9707
0.2788,0.0098,0.0049
0.2808,4.9853,0.0049
0.2818,4.9853,0.0098
0.2828,4.9804,0.0049
0.2828,0.0098,4.9804
0.2828,0.0098,0.0196
0.2828,4.9853,0.0049
0.2841,4.9804,0.0049
0.2841,4.9804,0.0049
0.2841,0.0098,4.9804
0.2841,0.0098,4.9804
0.2854,4.9804,0.0049
0.2874,4.9853,0.0049
0.2887,4.9804,0.0049
0.2887,0.0098,4.9804
0.2897,0.0098,4.9756
0.2897,4.9756,0.0049
0.2909,4.9804,0.0049
0.2909,4.9853,0.0049
0.2922,0.0098,4.9804
0.2922,0.0098,4.9804
0.2932,4.9804,0.0049
0.2932,4.9804,0.0049
0.2932,4.9804,0.0049
0.2932,0.0098,4.9804
0.2965,0.0098,4.9804
0.2978,4.9804,0.0049
0.2978,4.9804,0.0049
0.2978,4.9853,0.0049
0.2978,0.0098,4.9658
0.2992,0.0049,4.9804
0.2992,4.9853,0.0049
0.3003,4.9804,0.0049
0.3013,4.9804,0.0049
0.3023,4.9853,0.0049
0.3023,0.0098,4.9804
0.3033,4.9804,0.0049
0.3033,4.9804,0.0049
0.3033,4.9853,0.0049
0.3033,4.9804,0.0049
0.3043,0.0098,4.9804
0.3054,4.9853,0.0049
0.3054,4.9853,0.0049
0.3064,4.9804,0.0049
0.3064,4.9853,0.0049
0.3064,0.0098,4.9804
0.3064,0.0098,0.0049
0.3076,4.9853,0.0049
0.3097,4.9804,0.0049
0.3097,4.9853,0.0049
0.3097,0.0098,4.9804
0.3097,0.0098,4.9804
0.3109,4.9804,0.0098
0.3109,4.9804,0.0049
0.3109,4.9853,0.0049
0.3119,0.0098,4.9804
0.3119,0.0098,4.9756
0.3119,4.9853,0.0049
0.3129,4.9804,0.0049
0.3129,4.9804,0.0049
0.3129,0.0098,4.9804
0.3129,0.0098,4.9804
0.3141,4.9804,0.0049
0.3161,4.9804,0.0049
0.3171,4.9804,0.0049
0.3183,0.0098,4.9804
0.3183,0.0098,4.9804
0.3194,4.9853,0.0049
0.3205,4.9853,0.0049
0.3235,4.9804,0.0049
0.3245,0.0098,4.9756
0.3255,0.0098,4.9804
0.3255,4.9804,0.0049
0.3266,4.9853,0.0049
0.3266,4.9804,0.0049
0.3266,4.9707,0.0098
0.3276,0.0098,4.9756
0.3276,4.9853,0.0049
0.3276,4.9804,0.0049
0.3287,4.9804,0.0049
0.3287,4.9804,0.0049
0.3287,0.0098,4.9804
0.3297,4.9804,0.0049
0.3297,4.9804,0.0049
0.3297,4.9804,0.0049
0.3308,4.9804,0.0049
0.3308,0.0098,4.9804
0.3308,0.0098,0.0049
0.3308,4.9853,0.0049
0.3308,4.9804,0.0049
0.3343,4.9804,0.0049
0.3353,0.0098,4.9804
0.3367,0.0,0.0196
0.3367,4.9853,0.0049
0.3377,4.9804,0.0049
0.3377,4.9853,0.0049
0.3377,0.0098,4.9804
0.3389,0.0098,4.9756
0.3389,4.9804,0.0049
0.3389,4.9804,0.0049
0.3389,4.9804,0.0098
0.3403,0.0098,4.9804
0.3403,0.0049,4.9756
0.3413,4.9853,0.0049
0.3413,4.9804,0.0049
0.3423,4.9804,0.0049
0.3423,0.0098,4.9804
0.3433,0.0098,4.9804
0.3433,4.9853,0.0049
0.3433,4.9804,0.0098
0.3443,4.9804,0.0049
0.3443,0.0098,4.9804
0.3443,0.0098,4.9804
0.3443,4.9853,0.0049
0.3443,4.9853,0.0098
0.3458,4.9804,0.0049
0.3458,0.0147,0.2933
0.3458,0.0098,4.9804
0.3468,4.9804,0.0049
0.3468,4.9804,0.0049
0.3468,4.9804,0.0098
0.3491,4.9804,0.0342
0.3491,0.0098,4.9804
0.3502,4.9804,0.0049
0.3512,4.9853,0.0049
0.3522,4.9804,0.0049
0.3522,4.9804,0.0049
0.3533,0.0098,4.9804
0.3533,0.0098,0.0049
0.3544,4.9804,0.0049
0.3544,4.9853,0.0049
0.3554,4.9853,0.0049
0.3554,0.0049,4.9756
0.3554,0.0098,0.0098
0.3567,4.9804,0.0049
0.3597,4.9804,0.0049
0.3611,4.9804,0.0049
0.3611,0.0098,4.9804
0.3611,0.0098,4.9804
0.3611,4.9853,0.0049
0.3611,4.9804,0.0049
0.3624,4.9804,0.0098
0.3624,0.0098,4.9804
0.3634,0.0098,4.9804
0.3634,4.9853,0.0049
0.3634,4.9804,0.0049
0.3634,4.9804,0.0098
0.3655,0.0098,4.9804
0.3675,0.0098,4.9804
0.3685,4.9756,0.0049
0.3695,4.9804,0.0049
0.3695,4.9804,0.0098
0.3695,0.0098,4.9756
0.3715,0.0098,4.9756
0.3725,4.9804,0.0098
0.3725,4.9853,0.0049
0.3735,4.9756,0.0098
0.3735,0.0098,4.9658
0.3735,0.0098,4.9804
0.3747,4.9853,0.0049
0.3747,4.9853,0.0049
0.3757,4.9804,0.0098
0.3757,4.9804,0.0098
0.3757,0.0098,4.9804
0.3757,4.9853,0.0049
0.377,4.9804,0.0049
0.377,4.9804,0.0049
0.377,4.9853,0.0147
0.377,0.0098,4.9804
0.377,4.9853,0.0098
0.3783,4.9804,0.0049
0.3783,4.9804,0.0049
0.3783,4.9804,0.0049
0.3783,0.0098,4.9804
0.3793,0.0098,0.0049
0.3793,4.9804,0.0049
0.3793,4.9853,0.0049
0.3793,4.9853,0.0049
0.3793,0.0098,4.9756
0.3806,0.0098,4.9707
0.3816,4.9853,0.0049
0.3826,4.9804,0.0049
0.3836,4.9756,0.0098
0.3846,0.0098,4.9804
0.3846,0.0098,4.9804
0.3858,4.9804,0.0049
0.3858,4.9804,0.0049
0.3868,4.9804,0.0098
0.3868,0.0098,4.9804
0.3868,0.0098,4.9804
0.3868,4.9853,0.0049
0.3878,4.9853,0.0049
0.3878,4.9756,0.0098
0.3889,0.0098,4.9804
0.3899,0.0098,4.9804
0.3899,4.9804,0.0049
0.3909,4.9804,0.0049
0.3909,4.9756,0.0049
0.3909,0.0098,4.9804
0.3919,0.0098,4.9804
0.3919,4.9853,0.0049
0.3919,4.9804,0.0049
0.3931,4.9804,0.0049
0.3941,4.9756,0.0098
0.3941,0.0098,4.9804
0.3941,4.9804,0.0049
0.3951,4.9804,0.0049
0.3951,4.9804,0.0049
0.3951,4.9853,0.0049
0.3951,0.0098,4.9804
0.3951,4.9804,0.0049
0.3961,4.9804,0.0049
0.3961,4.9804,0.0049
0.3981,4.9853,0.0098
0.4022,0.0098,4.9804
0.4064,0.0098,0.0049
0.4106,4.9804,0.0049
0.4144,4.9804,0.0049
0.4174,4.9804,0.0049
0.422,0.0098,4.9804
0.4251,0.0098,0.0049
0.4302,4.9804,0.0049
0.4336,4.9804,0.0049
0.4376,4.9853,0.0049
0.4416,4.9804,0.0049
0.445,0.0098,0.0098
0.449,4.9804,0.0049
0.453,4.9853,0.0049
0.457,4.9853,0.0049
0.461,4.9853,0.0049
0.465,0.0098,0.0098
0.469,4.9804,0.0049
0.473,4.9756,0.0049
0.477,4.9853,0.0049
0.48,4.9853,0.0049
0.485,0.0098,0.0098
0.488,0.0098,0.0098
0.492,4.9804,0.0049
0.496,4.9853,0.0049
0.5,4.9853,0.0049
0.504,0.0098,0.0098
0.508,0.0098,0.0049
0.5116,4.9804,0.0049
0.5156,4.9804,0.0049
0.5196,4.9853,0.0049
0.5236,3.3382,0.0049
0.5276,0.0049,0.0049
0.5316,4.9853,0.0049
0.5356,4.9804,0.0049
0.539,4.9804,0.0049
0.5437,4.9853,0.0049
0.5467,0.0098,0.0049
0.5507,4.9804,0.0049
0.5547,4.9804,0.0
0.5587,4.9804,0.0098
0.5628,4.9804,0.0049
0.5659,0.0098,0.0049
0.5705,4.9804,0.0049
0.5747,4.9804,0.0049
0.5778,4.9853,0.0049
0.5822,4.9804,0.0049
0.586,0.0098,0.0098
0.5898,4.9804,0.0049
0.5941,4.9853,0.0049
0.5976,4.9853,0.0049
0.6016,4.9853,0.0049
0.6056,0.0098,0.0049
0.609,4.9853,0.0049
0.6139,4.9756,0.0049
0.6169,4.9804,0.0049
0.6211,4.9853,0.0049
0.6249,0.0098,0.0049
0.6291,4.9804,0.0049
0.6331,4.9853,0.0049
0.6371,4.9804,0.0049
0.6402,4.9804,0.0049
0.6448,0.0098,0.0049
0.6489,4.9853,0.0049
0.6523,4.9853,0.0049
0.6567,4.9804,0.0049
0.6597,4.9853,0.0049
0.6642,0.0098,0.0049
0.6685,4.9804,0.0049
0.6719,4.9804,0.0049
0.6762,4.9853,0.0098
0.6802,4.9804,0.0049
0.6843,4.9707,0.0049
0.6868,0.0098,0.0049
0.6915,4.9804,0.0049
0.6955,4.9853,0.0049
0.6989,4.9853,0.0098
0.7034,4.9853,0.0049
0.7074,0.0098,0.0049
0.7112,4.9853,0.0049
0.7148,4.9804,0.0049
0.7189,4.9853,0.0098
0.7229,4.9853,0.0049
0.727,0.0098,0.0049
0.7304,4.9804,0.0049
0.7347,4.9853,0.0049
0.7381,4.9804,0.0049
0.7423,4.9804,0.0049
0.7463,0.0098,0.0049
0.7497,4.9804,0.0049
0.7537,4.9804,0.0049
0.758,4.9853,0.0049
0.7613,4.9853,0.0049
0.7657,0.0098,0.0049
0.7691,4.9804,0.0049
0.7739,4.9804,0.0049
0.7773,4.9853,0.0049
0.7815,4.9804,0.0049
0.7855,0.0,0.0098
0.7887,4.9804,0.0049
0.793,4.9853,0.0049
0.797,4.9853,0.0049
0.8011,4.9853,0.0049
0.8052,0.0098,0.0049
0.809,4.9804,0.0049
0.8131,4.9853,0.0049
0.8161,4.9853,0.0049
0.8205,4.9804,0.0049
0.824,0.0098,0.0049
0.8276,4.9804,0.0049
0.8319,4.9804,0.0049
0.8363,4.9853,0.0049
0.8399,4.9853,0.0049
0.844,0.0196,0.0098
0.848,0.0342,0.0049
0.8511,4.9853,0.0098
0.8556,4.9853,0.0049
0.8596,4.9804,0.0049
0.8631,4.9804,0.0049
0.8667,2.1994,0.0049
0.8712,4.9804,0.0049
0.8748,4.9804,0.0049
0.8791,4.9804,0.0049
0.8834,4.9853,0.0049
0.8867,0.0489,0.0049
0.8909,4.9853,0.0049
0.8952,4.9804,0.0049
0.8986,4.9853,0.0
0.9018,4.9804,0.0049
0.9066,0.0147,0.0049
0.9105,4.9804,0.0049
0.9136,4.9804,0.0049
0.9177,4.9804,0.0049
0.9218,4.9853,0.0049
0.9252,0.0098,0.0049
0.9297,4.9853,0.0049
0.9335,4.9804,0.0049
0.9375,4.9853,0.0049
0.9417,4.9804,0.0049
0.9451,0.0147,0.0049
0.9495,4.9853,0.0049
0.9525,4.9853,0.0049
0.9576,4.9804,0.0049
0.9606,4.9804,0.0049
0.9646,0.0147,0.0049
0.969,4.9804,0.0049
0.9733,4.9853,0.0049
0.9766,4.9853,0.0049
0.981,4.9853,0.0049
0.9851,0.0147,0.0049
0.9881,4.9804,0.0049
0.9924,4.9853,0.0049
0.9968,4.9804,0.0049
1.0006,4.9804,0.0049
1.0038,4.9658,0.0098
1.008,4.9658,0.0098
1.0114,4.9853,0.0049
1.0157,4.9804,0.0049
1.0199,4.9804,0.0098
1.0235,4.9804,0.0098
1.0276,0.0244,0.0049
1.0319,4.9804,0.0049
1.0349,4.9853,0.0049
1.0389,4.9853,0.0098
1.0431,4.9853,0.0049
1.0471,0.0196,0.0098
1.0511,4.9804,0.0049
1.0541,4.9853,0.0098
1.0585,4.9853,0.0049
1.0621,4.9804,0.0098
1.0663,0.0196,0.0098
1.0709,4.9853,0.0049
1.0741,4.9853,0.0098
1.0781,4.9853,0.0049
1.0823,4.9804,0.0098
1.0856,0.0147,0.0098
1.0896,4.9804,0.0049
1.0936,4.9853,0.0098
1.0977,4.9804,0.0049
1.1017,4.9804,0.0049
1.1053,0.0244,0.0049
1.109,4.9853,0.0049
1.113,4.9804,0.0049
1.117,4.9853,0.0049
1.1206,4.9853,0.0098
1.1249,0.0147,0.0049
1.129,4.9853,0.0098
1.133,4.9804,0.0049
1.1365,4.9756,0.0098
1.1415,4.9804,0.0049
1.1445,0.0196,0.0098
1.149,4.9804,0.0098
1.1529,4.9853,0.0049
1.156,4.9804,0.0098
1.16,4.9804,0.0098
1.1639,4.6774,0.0098
1.168,4.9804,0.0098
1.172,4.9853,0.0098
1.176,4.9853,0.0098
1.18,4.9853,0.0098
1.184,4.9804,0.0098
1.188,4.9707,0.0098
1.192,4.9804,0.0049
1.196,4.9804,0.0098
1.199,4.9804,0.0098
1.203,4.9853,0.0049
1.207,4.9658,0.0098
1.2115,4.9853,0.0098
1.2145,4.9804,0.0098
1.2185,4.9804,0.0049
1.2225,4.9804,0.0049
1.2265,4.9658,0.0098
1.2309,4.9804,0.0049
1.2344,4.9804,0.0098
1.2386,4.9853,0.0098
1.2426,4.9853,0.0049
1.2466,4.9658,0.0049
1.2506,4.9804,0.0098
1.2546,4.9853,0.0098
1.258,4.9853,0.0049
1.262,4.9804,0.0098
1.2653,0.0293,0.0098
1.2694,4.9853,0.0049
1.2733,4.9804,0.0098
1.2773,4.9804,0.0098
1.2816,4.9804,0.0098
1.2851,0.0244,0.0098
1.2895,4.9804,0.0049
1.2925,4.9853,0.0098
1.2969,4.9853,0.0098
1.3012,4.9756,0.0098
1.3042,0.0342,0.0098
1.3093,4.9804,0.0098
1.3124,4.9853,0.0098
1.3164,4.9804,0.0049
1.3204,4.9804,0.0098
1.3245,4.4135,0.0098
1.3285,4.9804,0.0049
1.3318,4.9853,0.0098
1.336,4.9804,0.0098
1.3395,4.9853,0.0098
1.3438,4.9804,0.0098
1.348,4.9707,0.0098
1.3513,4.9853,0.0098
1.3558,4.9853,0.0098
1.359,4.9804,0.0098
1.3639,4.9804,0.0098
1.3674,4.9658,0.0049
1.3717,4.9804,0.0098
1.3747,4.9853,0.0098
1.3791,4.9804,0.0098
1.3833,4.9804,0.0098
1.3868,4.9658,0.0098
1.3915,4.9853,0.0098
1.3952,4.9853,0.0098
1.3985,4.9853,0.0147
1.4024,4.9853,0.0098
1.4069,4.9658,0.0098
1.4105,4.9804,0.0098
1.4139,4.9853,0.0098
1.4183,4.9853,0.0098
1.4225,4.9804,0.0098
1.4262,0.0391,0.0098
1.4295,4.9804,0.0098
1.4339,4.9853,0.0098
1.4373,4.9853,0.0098
1.4418,4.9853,0.0098
1.4458,2.3656,0.0098
1.4494,4.9804,0.0098
1.4534,4.9804,0.0098
1.4571,4.9804,0.0098
1.4616,4.9804,0.0098
1.4648,4.9609,0.0098
1.4691,4.9853,0.0098
1.4726,4.9804,0.0098
1.477,4.9804,0.0098
1.481,4.9853,0.0098
1.485,0.2248,0.0098
1.488,4.9804,0.0098
1.4925,4.9853,0.0098
1.4965,4.9853,0.0098
1.5006,4.9804,0.0098
1.504,4.9707,0.0098
1.508,4.9804,0.0098
1.5115,4.9853,0.0098
1.5157,4.9804,0.0098
1.5208,4.9804,0.0098
1.5239,4.9853,0.0098
1.5279,4.9756,0.0098
1.5312,4.9853,0.0098
1.5353,4.9853,0.0098
1.5392,4.9853,0.0098
1.5435,4.9853,0.0098
1.5475,4.9707,0.0098
1.5515,4.9853,0.0098
1.5555,4.9804,0.0098
1.5587,4.9853,0.0098
1.563,4.9804,0.0098
1.567,4.9658,0.0098
1.5709,4.9804,0.0098
1.5739,4.9853,0.0098
1.578,4.9804,0.0098
1.5823,4.9804,0.0098
1.5863,4.9658,0.0098
1.5904,4.9804,0.0098
1.5937,4.9804,0.0098
1.5977,4.9804,0.0098
1.602,4.9853,0.0098
1.6061,4.9609,0.0098
1.6096,4.9804,0.0098
1.6136,4.9853,0.0147
1.6176,4.9804,0.0098
1.6209,4.9804,0.0098
1.6252,4.9658,0.0098
1.6293,4.9853,0.0147
1.6336,4.9804,0.0098
1.637,4.9853,0.0098
1.6414,4.9804,0.0098
1.6454,4.9658,0.0098
1.6491,4.9853,0.0098
1.6521,4.9853,0.0098
1.656,4.9853,0.0098
1.661,4.9853,0.0098
1.6643,4.9707,0.0098
1.6684,4.9756,0.0049
1.6717,4.9804,0.0098
1.6758,4.9804,0.0098
1.6791,4.9853,0.0098
1.6843,4.9853,0.0098
1.6876,4.9756,0.0196
1.6932,4.9853,0.0098
1.6952,4.9853,0.0098
1.6998,4.9804,0.0098
1.703,4.9804,0.0098
1.7075,4.9707,0.0098
1.711,4.9804,0.0098
1.7154,4.9853,0.0098
1.7184,4.9853,0.0098
1.7235,4.9804,0.0098
1.7275,4.9707,0.0098
1.7309,4.9804,0.0098
1.734,4.9804,0.0098
1.7381,4.9804,0.0098
1.7427,4.9804,0.0098
1.7462,4.9658,0.0098
1.7507,4.9853,0.0098
1.7544,4.9853,0.0
1.7577,4.9853,0.0098
1.7618,4.9853,0.0098
1.7662,4.9658,0.0098
1.7694,4.9853,0.0098
1.773,4.9853,0.0147
1.7775,4.9804,0.0098
1.7808,4.9804,0.0098
1.7852,4.9658,0.0147
1.7896,4.9756,0.0098
1.7936,4.9853,0.0098
1.7978,4.9853,0.0098
1.8009,4.9804,0.0098
1.8052,4.9658,0.0147
1.8093,4.9804,0.0098
1.8132,4.9853,0.0098
1.8163,4.9853,0.0098
1.8206,4.9853,0.0098
1.8249,4.956,0.0147
1.8282,4.9853,0.0147
1.8322,4.9902,0.0098
1.8355,4.9804,0.0098
1.84,4.9853,0.0147
1.844,4.9804,0.0098
1.848,4.9804,0.0098
1.8514,4.9804,0.0098
1.855,4.9804,0.0147
1.8598,4.9804,0.0098
1.864,4.9853,0.0049
1.8671,4.9756,0.0098
1.8713,4.9853,0.0098
1.8756,4.9756,0.0098
1.8787,4.9804,0.0098
1.8832,4.9804,0.0147
1.8866,4.9707,0.0147
1.8911,4.9853,0.0147
1.8952,4.9804,0.0147
1.8992,4.9804,0.0098
1.9023,4.9853,0.0147
1.9069,4.9707,0.0147
1.9105,4.9804,0.0147
1.9141,4.9853,0.0098
1.9181,4.9853,0.0147
1.9223,4.9804,0.0147
1.9258,4.9658,0.0098
1.9294,4.9804,0.0147
1.9345,4.9853,0.0098
1.9375,4.9804,0.0147
1.9415,4.9804,0.0147
1.9455,4.9658,0.0147
1.9495,4.9853,0.0098
1.9535,4.9853,0.0147
1.9575,4.9804,0.0147
1.9615,4.9853,0.0147
1.9648,4.9707,0.0147
1.9688,4.9853,0.0147
1.9728,4.9804,0.0098
1.9768,4.9804,0.0147
1.9808,4.9804,0.0098
1.9843,4.9609,0.0098
1.9883,4.9804,0.0147
1.9923,4.9804,0.0147
1.9963,4.9853,0.0147
2.0003,4.9853,0.0147
2.0037,4.9804,0.0147
2.0077,4.9756,0.0147
2.0123,4.9853,0.0147
2.0163,4.9804,0.0147
2.0196,4.9853,0.0147
2.0236,4.9853,0.0147
2.0276,4.9756,0.0147
2.0316,4.9804,0.0147
2.0356,4.9853,0.0147
2.0398,4.9804,0.0147
2.0438,4.9804,0.0147
2.0472,4.9707,0.0147
2.0512,4.9804,0.0147
2.0551,4.9853,0.0147
2.0601,4.9804,0.0147
2.0633,4.9804,0.0147
2.0669,4.9707,0.0147
2.0702,4.9804,0.0049
2.0753,4.9804,0.0147
2.0776,4.9853,0.0147
2.0824,4.9804,0.0147
2.0864,4.9609,0.0147
2.0896,4.9853,0.0147
2.0944,4.9853,0.0147
2.0985,4.9853,0.0147
2.1018,4.9804,0.0147
2.1058,0.0342,0.0147
2.1097,4.9853,0.0147
2.1137,4.9804,0.0147
2.1179,4.9853,0.0147
2.1209,4.9853,0.0147
2.1255,0.0293,0.0147
2.1297,4.9853,0.0147
2.1327,4.9853,0.0147
2.1371,4.9853,0.0147
2.1405,4.9853,0.0147
2.1449,0.0244,0.0147
2.1489,4.9804,0.0147
2.153,4.9804,0.0147
2.1561,4.9804,0.0147
2.1605,4.9853,0.0147
2.1649,4.9804,0.0196
2.1686,4.9658,0.0147
2.172,4.9804,0.0147
2.176,4.9804,0.0147
2.1806,4.9804,0.0147
2.1842,4.9853,0.0147
2.1877,2.2874,0.0147
2.1922,4.9804,0.0147
2.1957,4.9804,0.0147
2.1992,4.9804,0.0147
2.2038,4.9804,0.0147
2.2071,0.0342,0.0147
2.2116,4.9853,0.0147
2.2162,4.9853,0.0147
2.2184,4.9853,0.0147
2.2228,4.9804,0.0147
2.2269,0.0293,0.0147
2.2303,4.9804,0.0147
2.2349,4.9853,0.0196
2.239,4.9804,0.0147
2.2429,4.9804,0.0147
2.2465,0.0244,0.0147
2.2505,4.9804,0.0147
2.2545,4.9804,0.0147
2.2579,4.9804,0.0147
2.2619,4.9853,0.0147
2.2662,0.0244,0.0147
2.2696,4.9804,0.0147
2.2736,4.9804,0.0147
2.2776,4.9853,0.0147
2.2817,4.9804,0.0147
2.2858,0.0293,0.0147
2.2893,4.9804,0.0147
2.2934,4.9804,0.0147
2.2978,4.9804,0.0147
2.301,4.9804,0.0147
2.3051,0.1026,0.0147
2.3088,4.9804,0.0196
2.3133,4.9804,0.0147
2.3163,4.9853,0.0147
2.3207,4.9853,0.0196
2.3243,4.9707,0.0147
2.328,4.9804,0.0196
2.3323,4.9804,0.0147
2.3364,4.9804,0.0147
2.3404,4.9804,0.0196
2.3446,4.9804,0.0196
2.3483,4.9756,0.0293
2.3523,4.9804,0.0147
2.3554,4.9804,0.0196
2.3605,4.9804,0.0196
2.3642,4.9804,0.0196
2.3672,4.9658,0.0196
2.3708,4.9853,0.0147
2.3754,4.9804,0.0196
2.3794,4.9804,0.0147
2.3834,4.9853,0.0196
2.3869,4.9609,0.0196
2.3904,4.9804,0.0196
2.3952,4.9853,0.0196
2.3987,4.9804,0.0196
2.4027,4.9853,0.0196
2.4068,0.0342,0.0196
2.4107,4.9804,0.0196
2.4142,4.9804,0.0196
2.4184,4.9804,0.0196
2.4221,4.9804,0.0196
2.4262,3.4897,0.0196
2.4298,4.9804,0.0196
2.4342,4.9804,0.0098
2.4379,4.9804,0.0196
2.4419,4.9853,0.0196
2.4459,4.9658,0.0196
2.4499,4.9804,0.0293
2.4543,4.9804,0.0196
2.4574,4.9902,0.0196
2.4614,4.9804,0.0196
2.4648,4.9658,0.0196
2.4688,4.9804,0.0196
2.4728,4.9804,0.0196
2.4767,4.9804,0.0196
2.4813,4.9804,0.0196
2.4855,4.9756,0.0196
2.4889,4.9756,0.0196
2.4921,4.9804,0.0196
2.4964,4.9804,0.0196
2.5009,4.9804,0.0196
2.5042,4.9804,0.0196
2.5083,4.9756,0.0196
2.5118,4.9804,0.0196
2.5159,4.9804,0.0196
2.5199,4.9804,0.0196
2.5241,4.9804,0.0196
2.528,4.9707,0.0196
2.5314,4.9804,0.0196
2.5354,4.9804,0.0147
2.5398,4.9804,0.0196
2.5438,4.9804,0.0196
2.5473,4.9609,0.0196
2.5513,4.9804,0.0196
2.555,4.9804,0.0196
2.5595,4.9804,0.0244
2.5625,4.9853,0.0196
2.5665,4.9609,0.0196
2.5712,4.9804,0.0244
2.5742,4.9804,0.0196
2.5782,4.9804,0.0196
2.5825,4.9804,0.0196
2.5868,4.9609,0.0196
2.5908,4.9804,0.0196
2.5942,4.9804,0.0196
2.5983,4.9804,0.0196
2.602,4.9804,0.0244
2.6063,4.9658,0.0244
2.61,4.9804,0.0196
2.6131,4.9804,0.0196
2.618,4.9853,0.0244
2.6213,4.9804,0.0244
2.6255,4.956,0.0244
2.629,4.9804,0.0196
2.6327,4.9804,0.0293
2.6373,4.9804,0.0196
2.6417,4.9804,0.0244
2.6447,4.9756,0.0244
2.6491,4.9756,0.0196
2.6523,4.9804,0.0244
2.6571,4.9804,0.0244
2.6614,4.9804,0.0244
2.6644,4.9804,0.0244
2.6684,4.9658,0.0244
2.6719,4.9853,0.0244
2.6765,4.9804,0.0244
2.6807,4.9804,0.0244
2.6837,4.9853,0.0244
2.688,4.9658,0.0244
2.6915,4.9804,0.0244
2.6955,4.9804,0.0244
2.6995,4.9804,0.0244
2.7035,4.9804,0.0244
2.7075,4.9658,0.0244
2.7111,4.9804,0.0244
2.7151,4.9804,0.0244
2.7191,4.9804,0.0244
2.7231,4.9756,0.0244
2.727,4.9365,0.0244
2.7311,4.9804,0.0244
2.735,4.9804,0.0244
2.739,4.9804,0.0244
2.7431,4.9804,0.0244
2.747,3.0645,0.0244
2.7501,4.9804,0.0244
2.754,4.9804,0.0244
2.7581,4.9804,0.0244
2.762,4.9804,0.0244
2.7661,0.0342,0.0244
2.77,4.9804,0.0244
2.7741,4.9804,0.0244
2.778,4.9804,0.0244
2.7821,4.9804,0.0244
2.786,4.9609,0.0244
2.7891,4.9804,0.0244
2.794,4.9804,0.0244
2.7971,4.9804,0.0244
2.8014,4.9804,0.0244
2.8054,0.0293,0.0244
2.8084,4.9804,0.0244
2.8129,4.9804,0.0244
2.8173,4.9804,0.0244
2.8203,4.9804,0.0244
2.8249,4.9707,0.0244
2.828,4.9707,0.0244
2.8329,4.9804,0.0244
2.836,4.9804,0.0244
2.84,4.9804,0.0244
2.8443,4.9804,0.0244
2.8483,4.9658,0.0244
2.8518,4.9804,0.0293
2.856,4.9853,0.0244
2.8603,4.9804,0.0244
2.8633,4.9853,0.0244
2.8676,4.9609,0.0244
2.8717,4.9804,0.0244
2.875,4.9804,0.0244
2.8792,4.9853,0.0244
2.8832,4.9707,0.0244
2.8872,4.9609,0.0293
2.8904,4.9804,0.0293
2.895,4.9804,0.0293
2.8983,4.9804,0.0244
2.9032,4.9804,0.0244
2.9062,0.044,0.0244
2.9102,4.9804,0.0293
2.915,4.9804,0.0293
2.919,4.9804,0.0244
2.922,4.9804,0.0342
2.926,0.0293,0.0244
2.9302,4.9804,0.0293
2.9337,4.9804,0.0244
2.9381,4.9804,0.0293
2.9421,4.9853,0.0293
2.9461,0.0293,0.0293
2.9498,4.9804,0.0293
2.9532,4.9853,0.0293
2.9581,4.9804,0.0244
2.9611,4.9804,0.0293
2.9651,0.0293,0.0293
2.9692,4.9756,0.0293
2.9729,4.9804,0.0293
2.9769,4.9804,0.0293
2.9814,4.9804,0.0293
2.9849,4.9756,0.0293
2.9889,4.9658,0.0293
2.9929,4.9804,0.0293
2.997,4.9804,0.0293
3.0009,4.9804,0.0293
3.004,4.9804,0.0293
3.0076,4.9658,0.0293
3.0124,4.9756,0.0293
3.0163,4.9804,0.0293
3.0203,4.9804,0.0293
3.0245,4.9756,0.0293
3.0279,4.9609,0.0342
3.0321,4.9804,0.0293
3.0353,4.9804,0.0342
3.04,4.9756,0.0293
3.0434,4.9804,0.0342
3.0463,4.9609,0.0342
3.0511,4.9804,0.0342
3.055,4.9756,0.0342
3.059,4.9804,0.0342
3.0634,4.9804,0.0342
3.0666,0.0342,0.0342
3.0701,4.9707,0.0342
3.0749,4.9756,0.0342
3.0779,4.9804,0.0342
3.0827,4.9804,0.0342
3.0869,0.0293,0.0538
3.0909,4.9756,0.0978
3.094,4.9804,0.2835
3.0981,4.9804,0.523
3.1017,4.9804,0.8162
3.1059,0.0293,1.52
3.1104,4.9804,1.4027
3.1135,4.9658,1.3978
3.117,4.9804,1.5298
3.1218,4.9804,1.5054
3.1254,0.0293,2.2092
3.1288,4.9804,1.911
3.1338,4.9804,1.608
3.137,4.9804,1.828
3.1411,4.9756,1.7693
3.1451,4.9658,2.2385
3.1495,4.9756,2.3069
3.1529,4.9756,1.9501
3.1565,4.9804,1.999
3.1604,4.9756,1.9453
3.1645,4.9756,2.3705
3.1679,4.9707,2.6002
3.1729,4.9756,2.131
3.1764,4.9756,2.0968
3.1797,4.9804,2.2287
3.1838,4.9804,2.6295
3.1885,4.9707,2.8201
3.1916,4.9804,2.1945
3.1961,4.9804,2.4096
3.1993,4.9804,2.1505
3.2038,4.9804,2.7126
3.2073,4.9658,4.9511
3.2112,4.9804,4.6432
3.2155,4.9756,4.3597
3.2196,4.9804,3.8123
3.2229,4.9756,4.0665
3.2271,4.9756,3.9541
3.2312,4.9756,3.436
3.2354,4.9804,3.2649
3.2384,4.9804,3.4018
3.2427,4.9804,3.4457
3.2467,4.9756,3.7146
3.2507,4.9756,2.9863
3.2549,4.9804,2.7468
3.2581,4.9804,2.7273
3.2621,4.9756,2.8935
3.2665,4.9756,3.1329
3.27,4.9756,2.9814
3.2741,4.9756,2.6931
3.2783,4.9804,2.7028
3.2815,4.9756,2.3607
3.2857,4.9804,3.1085
3.2897,4.9804,2.9374
3.2938,4.9804,2.3314
3.2978,4.9804,2.2923
3.3012,4.9756,2.0674
3.3049,4.9756,2.9423
3.3094,4.9756,2.8739
3.3135,4.9756,2.175
3.3165,4.9804,2.3363
3.3211,4.9804,1.999
3.3248,4.9756,2.9277
3.3292,4.9804,3.0596
3.3326,4.9756,2.2776
3.3369,4.9756,2.3509
3.3399,4.9756,2.1505
3.3449,4.9804,2.7713
3.3483,4.9658,3.1916
3.3517,4.9804,2.4585
3.3557,4.9804,2.1994
3.3598,4.9804,2.0968
3.3641,4.9756,2.7761
3.3671,0.0342,3.1623
3.3723,4.9756,2.2581
3.3759,4.9756,2.3167
3.3791,4.9804,2.1163
3.3836,4.9756,2.5513
3.3866,0.0244,3.0303
3.3905,4.9756,2.2581
3.3943,4.9804,2.3265
3.3982,4.9756,2.1701
3.4029,4.9804,2.434
3.4064,0.0196,2.9374
3.4102,4.9756,2.3509
3.4145,4.9756,2.1457
3.4185,4.9756,2.3803
3.4228,4.9853,2.522
3.4261,4.9609,3.0743
3.4306,4.9756,2.6491
3.434,4.9804,2.3949
3.4375,4.9804,2.3656
3.4422,4.9756,2.3021
3.4454,4.9756,3.0743
3.45,4.9756,2.6295
3.4535,4.9756,2.0577
3.4578,4.9756,2.2923
3.4609,4.9756,1.999
3.465,4.9756,2.9912
3.4692,4.9756,2.9863
3.4734,4.9756,2.3216
3.4765,4.9756,2.4242
3.4804,4.9756,2.0723
3.4848,4.9756,2.9326
3.4889,4.9658,2.9472
3.4929,4.9756,2.0626
3.4971,4.9756,2.2727
3.5011,4.9756,2.0039
3.5041,4.9756,2.825
3.5081,0.0244,2.8935
3.5127,4.9756,2.1554
3.5157,4.9756,2.2874
3.5197,4.9756,2.0626
3.5237,4.9756,2.6197
3.5277,0.0147,2.8935
3.5317,4.9756,2.1945
3.5357,4.9707,2.1896
3.5397,4.9756,2.0186
3.5437,4.9756,2.3607
3.5477,0.0098,2.7175
3.5517,4.9756,2.175
3.5547,4.9756,2.2581
3.5589,4.9804,2.2532
3.5629,4.9756,2.346
3.5669,0.0098,2.9912
3.5709,4.9756,2.2483
3.5749,4.9756,2.1896
3.5781,4.9756,2.3558
3.5826,4.9756,2.2239
3.5864,0.0098,3.0303
3.5905,4.9756,2.2532
3.5945,4.9804,2.1408
3.5985,4.9756,2.346
3.6025,4.9756,2.2092
3.6055,0.0147,3.001
3.61,4.9756,2.5367
3.6141,4.9756,2.1994
3.6181,4.9756,2.3314
3.6221,4.9707,1.9404
3.6252,4.9756,2.9521
3.6295,4.9756,2.7273
3.6335,4.9756,2.1114
3.6375,4.9756,2.5953
3.641,4.9756,1.9599
3.6455,4.9756,3.0156
3.6496,4.9707,2.8152
3.653,4.9756,2.2434
3.6561,4.9756,2.5318
3.6607,4.9756,2.0772
3.6651,4.9756,2.7761
3.6682,0.0244,3.0938
3.6727,4.9756,2.1163
3.6762,4.9756,2.2092
3.6802,4.9756,1.8964
3.6846,4.9756,2.5855
3.6881,0.0098,2.957
3.6917,4.9756,2.1261
3.6957,4.9756,2.1896
3.6997,4.9756,1.9453
3.704,4.9756,2.6735
3.7077,0.0147,2.8739
3.7112,4.9756,2.2483
3.7154,4.9756,1.9746
3.7189,4.9804,2.131
3.7232,4.9707,2.3118
3.7274,0.0098,2.9179
3.7307,4.9756,2.1017
3.7351,4.9756,2.0821
3.7391,4.9853,2.2678
3.7431,4.9756,2.219
3.7462,0.0098,2.8104
3.7503,4.9707,2.3558
3.7545,4.9756,2.1457
3.7589,4.9756,2.3754
3.7619,4.9707,2.2287
3.7667,0.0098,2.8641
3.7703,4.9756,2.4389
3.7743,4.9756,2.0235
3.7784,4.9756,2.3363
3.7818,4.9756,2.1505
3.7861,4.9756,3.0205
3.7901,4.9756,2.6197
3.7932,4.9756,2.1505
3.7973,4.9756,2.4047
3.8013,4.9756,1.9941
3.8057,4.9756,2.7322
3.8095,4.9756,2.8299
3.8132,4.9756,2.2043
3.8172,4.9756,2.434
3.8214,4.9756,2.0186
3.8247,4.9756,2.7566
3.8287,4.9658,2.8055
3.8327,4.9756,2.2141
3.8367,4.9756,2.3509
3.841,4.9756,1.9844
3.8441,4.9756,2.5806
3.8486,4.9658,2.6784
3.8518,4.9756,2.1017
3.8555,4.9756,2.3607
3.86,4.9707,2.0235
3.8644,4.9756,2.2825
3.8674,0.0147,2.8006
3.8717,4.9756,2.219
3.8758,4.9804,2.3754
3.8798,4.9756,2.2239
3.8838,4.9756,2.3021
3.8878,0.0098,2.869
3.891,4.9756,2.175
3.8951,4.9756,2.4291
3.8996,4.9756,2.5073
